#  E (eV)   dos(E)     Int dos(E) EFermi =    6.779 eV
  -6.000  0.0000E+00  0.0000E+00
  -5.950  0.0000E+00  0.0000E+00
  -5.900  0.0000E+00  0.0000E+00
  -5.850  0.0000E+00  0.0000E+00
  -5.800  0.0000E+00  0.0000E+00
  -5.750  0.9392E-02  0.2523E-04
  -5.700  0.7786E-01  0.2708E-02
  -5.650  0.1107E+00  0.7465E-02
  -5.600  0.1331E+00  0.1362E-01
  -5.550  0.1547E+00  0.2092E-01
  -5.500  0.1766E+00  0.2917E-01
  -5.450  0.1905E+00  0.3834E-01
  -5.400  0.2087E+00  0.4833E-01
  -5.350  0.2211E+00  0.5908E-01
  -5.300  0.2382E+00  0.7056E-01
  -5.250  0.2495E+00  0.8273E-01
  -5.200  0.2636E+00  0.9554E-01
  -5.150  0.2753E+00  0.1091E+00
  -5.100  0.2875E+00  0.1231E+00
  -5.050  0.3013E+00  0.1378E+00
  -5.000  0.3109E+00  0.1531E+00
  -4.950  0.3228E+00  0.1690E+00
  -4.900  0.3351E+00  0.1854E+00
  -4.850  0.3450E+00  0.2024E+00
  -4.800  0.3560E+00  0.2199E+00
  -4.750  0.3684E+00  0.2381E+00
  -4.700  0.3779E+00  0.2567E+00
  -4.650  0.3885E+00  0.2759E+00
  -4.600  0.4003E+00  0.2956E+00
  -4.550  0.4106E+00  0.3159E+00
  -4.500  0.4210E+00  0.3366E+00
  -4.450  0.4321E+00  0.3580E+00
  -4.400  0.4441E+00  0.3799E+00
  -4.350  0.4542E+00  0.4023E+00
  -4.300  0.4653E+00  0.4253E+00
  -4.250  0.4772E+00  0.4489E+00
  -4.200  0.4892E+00  0.4730E+00
  -4.150  0.5006E+00  0.4978E+00
  -4.100  0.5127E+00  0.5231E+00
  -4.050  0.5262E+00  0.5491E+00
  -4.000  0.5393E+00  0.5757E+00
  -3.950  0.5529E+00  0.6030E+00
  -3.900  0.5670E+00  0.6310E+00
  -3.850  0.5832E+00  0.6598E+00
  -3.800  0.5997E+00  0.6893E+00
  -3.750  0.6175E+00  0.7198E+00
  -3.700  0.6369E+00  0.7511E+00
  -3.650  0.6597E+00  0.7835E+00
  -3.600  0.6855E+00  0.8171E+00
  -3.550  0.7169E+00  0.8522E+00
  -3.500  0.7575E+00  0.8890E+00
  -3.450  0.8268E+00  0.9284E+00
  -3.400  0.9001E+00  0.9727E+00
  -3.350  0.8780E+00  0.1017E+01
  -3.300  0.8648E+00  0.1061E+01
  -3.250  0.8458E+00  0.1104E+01
  -3.200  0.8314E+00  0.1146E+01
  -3.150  0.8142E+00  0.1187E+01
  -3.100  0.7972E+00  0.1227E+01
  -3.050  0.7781E+00  0.1266E+01
  -3.000  0.7625E+00  0.1305E+01
  -2.950  0.7468E+00  0.1343E+01
  -2.900  0.7296E+00  0.1380E+01
  -2.850  0.7106E+00  0.1416E+01
  -2.800  0.6944E+00  0.1451E+01
  -2.750  0.6783E+00  0.1485E+01
  -2.700  0.6605E+00  0.1518E+01
  -2.650  0.6424E+00  0.1551E+01
  -2.600  0.6257E+00  0.1583E+01
  -2.550  0.6083E+00  0.1614E+01
  -2.500  0.5907E+00  0.1644E+01
  -2.450  0.5716E+00  0.1673E+01
  -2.400  0.5533E+00  0.1701E+01
  -2.350  0.5363E+00  0.1728E+01
  -2.300  0.5167E+00  0.1754E+01
  -2.250  0.4974E+00  0.1780E+01
  -2.200  0.4782E+00  0.1804E+01
  -2.150  0.4587E+00  0.1827E+01
  -2.100  0.4368E+00  0.1850E+01
  -2.050  0.4182E+00  0.1871E+01
  -2.000  0.3940E+00  0.1892E+01
  -1.950  0.3774E+00  0.1911E+01
  -1.900  0.3579E+00  0.1929E+01
  -1.850  0.3387E+00  0.1947E+01
  -1.800  0.3112E+00  0.1963E+01
  -1.750  0.2626E+00  0.1977E+01
  -1.700  0.1781E+00  0.1989E+01
  -1.650  0.1033E+00  0.1996E+01
  -1.600  0.4579E-01  0.1999E+01
  -1.550  0.8109E-02  0.2000E+01
  -1.500  0.2858E-01  0.2001E+01
  -1.450  0.6222E-01  0.2003E+01
  -1.400  0.1092E+00  0.2007E+01
  -1.350  0.1651E+00  0.2014E+01
  -1.300  0.2282E+00  0.2024E+01
  -1.250  0.2620E+00  0.2037E+01
  -1.200  0.2897E+00  0.2050E+01
  -1.150  0.3149E+00  0.2066E+01
  -1.100  0.3455E+00  0.2082E+01
  -1.050  0.3697E+00  0.2100E+01
  -1.000  0.4071E+00  0.2119E+01
  -0.950  0.4333E+00  0.2140E+01
  -0.900  0.4661E+00  0.2163E+01
  -0.850  0.5077E+00  0.2187E+01
  -0.800  0.5451E+00  0.2213E+01
  -0.750  0.6507E+00  0.2242E+01
  -0.700  0.9347E+00  0.2282E+01
  -0.650  0.1188E+01  0.2334E+01
  -0.600  0.1657E+01  0.2403E+01
  -0.550  0.1732E+01  0.2502E+01
  -0.500  0.1274E+01  0.2575E+01
  -0.450  0.1098E+01  0.2633E+01
  -0.400  0.9867E+00  0.2685E+01
  -0.350  0.9066E+00  0.2733E+01
  -0.300  0.8436E+00  0.2776E+01
  -0.250  0.7926E+00  0.2817E+01
  -0.200  0.7495E+00  0.2856E+01
  -0.150  0.7125E+00  0.2892E+01
  -0.100  0.6797E+00  0.2927E+01
  -0.050  0.6498E+00  0.2960E+01
   0.000  0.6234E+00  0.2992E+01
   0.050  0.5994E+00  0.3023E+01
   0.100  0.5775E+00  0.3052E+01
   0.150  0.5564E+00  0.3080E+01
   0.200  0.5369E+00  0.3108E+01
   0.250  0.5189E+00  0.3134E+01
   0.300  0.5023E+00  0.3160E+01
   0.350  0.4866E+00  0.3184E+01
   0.400  0.4708E+00  0.3208E+01
   0.450  0.4563E+00  0.3231E+01
   0.500  0.4428E+00  0.3254E+01
   0.550  0.4300E+00  0.3276E+01
   0.600  0.4178E+00  0.3297E+01
   0.650  0.4053E+00  0.3317E+01
   0.700  0.3936E+00  0.3337E+01
   0.750  0.3826E+00  0.3357E+01
   0.800  0.3723E+00  0.3376E+01
   0.850  0.3627E+00  0.3394E+01
   0.900  0.3521E+00  0.3412E+01
   0.950  0.3423E+00  0.3429E+01
   1.000  0.3331E+00  0.3446E+01
   1.050  0.3244E+00  0.3463E+01
   1.100  0.3161E+00  0.3479E+01
   1.150  0.3079E+00  0.3494E+01
   1.200  0.2994E+00  0.3509E+01
   1.250  0.2913E+00  0.3524E+01
   1.300  0.2837E+00  0.3539E+01
   1.350  0.2766E+00  0.3553E+01
   1.400  0.2700E+00  0.3566E+01
   1.450  0.2627E+00  0.3580E+01
   1.500  0.2554E+00  0.3593E+01
   1.550  0.2487E+00  0.3605E+01
   1.600  0.2423E+00  0.3617E+01
   1.650  0.2362E+00  0.3629E+01
   1.700  0.2305E+00  0.3641E+01
   1.750  0.2245E+00  0.3652E+01
   1.800  0.2451E+00  0.3664E+01
   1.850  0.5047E+00  0.3683E+01
   1.900  0.6359E+00  0.3712E+01
   1.950  0.7628E+00  0.3748E+01
   2.000  0.9046E+00  0.3789E+01
   2.050  0.1076E+01  0.3838E+01
   2.100  0.1275E+01  0.3900E+01
   2.150  0.1233E+01  0.3962E+01
   2.200  0.1182E+01  0.4023E+01
   2.250  0.1154E+01  0.4081E+01
   2.300  0.1093E+01  0.4137E+01
   2.350  0.1060E+01  0.4191E+01
   2.400  0.1028E+01  0.4243E+01
   2.450  0.1011E+01  0.4294E+01
   2.500  0.1009E+01  0.4345E+01
   2.550  0.1015E+01  0.4395E+01
   2.600  0.1017E+01  0.4446E+01
   2.650  0.1026E+01  0.4498E+01
   2.700  0.1028E+01  0.4549E+01
   2.750  0.1044E+01  0.4601E+01
   2.800  0.1057E+01  0.4653E+01
   2.850  0.1064E+01  0.4706E+01
   2.900  0.1083E+01  0.4760E+01
   2.950  0.1098E+01  0.4814E+01
   3.000  0.1127E+01  0.4870E+01
   3.050  0.1141E+01  0.4927E+01
   3.100  0.1170E+01  0.4985E+01
   3.150  0.1202E+01  0.5044E+01
   3.200  0.1244E+01  0.5105E+01
   3.250  0.1300E+01  0.5169E+01
   3.300  0.1351E+01  0.5235E+01
   3.350  0.1531E+01  0.5307E+01
   3.400  0.1547E+01  0.5384E+01
   3.450  0.1537E+01  0.5461E+01
   3.500  0.1499E+01  0.5536E+01
   3.550  0.1488E+01  0.5611E+01
   3.600  0.1472E+01  0.5685E+01
   3.650  0.1459E+01  0.5759E+01
   3.700  0.1445E+01  0.5831E+01
   3.750  0.1433E+01  0.5903E+01
   3.800  0.1415E+01  0.5975E+01
   3.850  0.1406E+01  0.6045E+01
   3.900  0.1391E+01  0.6115E+01
   3.950  0.1375E+01  0.6184E+01
   4.000  0.1366E+01  0.6253E+01
   4.050  0.1351E+01  0.6321E+01
   4.100  0.1335E+01  0.6388E+01
   4.150  0.1321E+01  0.6454E+01
   4.200  0.1313E+01  0.6520E+01
   4.250  0.1301E+01  0.6585E+01
   4.300  0.1282E+01  0.6650E+01
   4.350  0.1270E+01  0.6714E+01
   4.400  0.1259E+01  0.6777E+01
   4.450  0.1247E+01  0.6840E+01
   4.500  0.1237E+01  0.6902E+01
   4.550  0.1226E+01  0.6963E+01
   4.600  0.1213E+01  0.7024E+01
   4.650  0.1198E+01  0.7085E+01
   4.700  0.1191E+01  0.7144E+01
   4.750  0.1186E+01  0.7204E+01
   4.800  0.1173E+01  0.7263E+01
   4.850  0.1155E+01  0.7321E+01
   4.900  0.1150E+01  0.7378E+01
   4.950  0.1131E+01  0.7436E+01
   5.000  0.1075E+01  0.7492E+01
   5.050  0.8952E+00  0.7541E+01
   5.100  0.8048E+00  0.7583E+01
   5.150  0.7406E+00  0.7622E+01
   5.200  0.6985E+00  0.7658E+01
   5.250  0.6353E+00  0.7691E+01
   5.300  0.5983E+00  0.7722E+01
   5.350  0.5516E+00  0.7751E+01
   5.400  0.5154E+00  0.7778E+01
   5.450  0.4792E+00  0.7802E+01
   5.500  0.4545E+00  0.7826E+01
   5.550  0.4152E+00  0.7847E+01
   5.600  0.3962E+00  0.7867E+01
   5.650  0.3564E+00  0.7886E+01
   5.700  0.3336E+00  0.7903E+01
   5.750  0.3008E+00  0.7919E+01
   5.800  0.2773E+00  0.7934E+01
   5.850  0.2485E+00  0.7947E+01
   5.900  0.2274E+00  0.7959E+01
   5.950  0.1973E+00  0.7970E+01
   6.000  0.1727E+00  0.7979E+01
   6.050  0.1360E+00  0.7987E+01
   6.100  0.1118E+00  0.7994E+01
   6.150  0.6796E-01  0.7998E+01
   6.200  0.2364E-02  0.8000E+01
   6.250  0.0000E+00  0.8000E+01
   6.300  0.0000E+00  0.8000E+01
   6.350  0.0000E+00  0.8000E+01
   6.400  0.0000E+00  0.8000E+01
   6.450  0.0000E+00  0.8000E+01
   6.500  0.0000E+00  0.8000E+01
   6.550  0.0000E+00  0.8000E+01
   6.600  0.0000E+00  0.8000E+01
   6.650  0.0000E+00  0.8000E+01
   6.700  0.0000E+00  0.8000E+01
   6.750  0.0000E+00  0.8000E+01
   6.800  0.1019E-01  0.8000E+01
   6.850  0.8156E-01  0.8002E+01
   6.900  0.1264E+00  0.8008E+01
   6.950  0.1787E+00  0.8015E+01
   7.000  0.2256E+00  0.8025E+01
   7.050  0.2633E+00  0.8038E+01
   7.100  0.2993E+00  0.8052E+01
   7.150  0.3306E+00  0.8067E+01
   7.200  0.3657E+00  0.8085E+01
   7.250  0.3994E+00  0.8104E+01
   7.300  0.4165E+00  0.8124E+01
   7.350  0.4465E+00  0.8146E+01
   7.400  0.4754E+00  0.8169E+01
   7.450  0.4994E+00  0.8193E+01
   7.500  0.5275E+00  0.8219E+01
   7.550  0.5560E+00  0.8246E+01
   7.600  0.5842E+00  0.8275E+01
   7.650  0.6042E+00  0.8304E+01
   7.700  0.6276E+00  0.8335E+01
   7.750  0.6565E+00  0.8367E+01
   7.800  0.7094E+00  0.8401E+01
   7.850  0.7735E+00  0.8438E+01
   7.900  0.8111E+00  0.8478E+01
   7.950  0.8617E+00  0.8520E+01
   8.000  0.9186E+00  0.8564E+01
   8.050  0.9621E+00  0.8611E+01
   8.100  0.1007E+01  0.8661E+01
   8.150  0.1068E+01  0.8712E+01
   8.200  0.1126E+01  0.8767E+01
   8.250  0.1195E+01  0.8825E+01
   8.300  0.1274E+01  0.8887E+01
   8.350  0.1401E+01  0.8954E+01
   8.400  0.1577E+01  0.9028E+01
   8.450  0.1660E+01  0.9110E+01
   8.500  0.1647E+01  0.9192E+01
   8.550  0.1633E+01  0.9274E+01
   8.600  0.1621E+01  0.9355E+01
   8.650  0.1580E+01  0.9436E+01
   8.700  0.1544E+01  0.9514E+01
   8.750  0.1505E+01  0.9590E+01
   8.800  0.1427E+01  0.9664E+01
   8.850  0.1315E+01  0.9733E+01
   8.900  0.1235E+01  0.9796E+01
   8.950  0.1193E+01  0.9857E+01
   9.000  0.1184E+01  0.9916E+01
   9.050  0.1170E+01  0.9975E+01
   9.100  0.1137E+01  0.1003E+02
   9.150  0.1116E+01  0.1009E+02
   9.200  0.1097E+01  0.1014E+02
   9.250  0.1069E+01  0.1020E+02
   9.300  0.9657E+00  0.1025E+02
   9.350  0.9663E+00  0.1030E+02
   9.400  0.1174E+01  0.1035E+02
   9.450  0.1580E+01  0.1042E+02
   9.500  0.2423E+01  0.1052E+02
   9.550  0.2378E+01  0.1064E+02
   9.600  0.2213E+01  0.1076E+02
   9.650  0.1981E+01  0.1086E+02
   9.700  0.1719E+01  0.1095E+02
   9.750  0.1656E+01  0.1104E+02
   9.800  0.1676E+01  0.1112E+02
   9.850  0.1707E+01  0.1120E+02
   9.900  0.1720E+01  0.1129E+02
   9.950  0.1770E+01  0.1138E+02
  10.000  0.1781E+01  0.1146E+02
  10.050  0.1791E+01  0.1156E+02
  10.100  0.1567E+01  0.1164E+02
  10.150  0.1425E+01  0.1171E+02
  10.200  0.1359E+01  0.1178E+02
  10.250  0.1263E+01  0.1185E+02
  10.300  0.1188E+01  0.1191E+02
  10.350  0.1117E+01  0.1197E+02
  10.400  0.1087E+01  0.1202E+02
  10.450  0.1107E+01  0.1208E+02
  10.500  0.1151E+01  0.1213E+02
  10.550  0.1174E+01  0.1219E+02
  10.600  0.1206E+01  0.1225E+02
  10.650  0.1253E+01  0.1231E+02
  10.700  0.1370E+01  0.1238E+02
  10.750  0.1451E+01  0.1245E+02
  10.800  0.1315E+01  0.1252E+02
  10.850  0.1275E+01  0.1258E+02
  10.900  0.1229E+01  0.1264E+02
  10.950  0.1216E+01  0.1270E+02
  11.000  0.1218E+01  0.1277E+02
  11.050  0.1230E+01  0.1283E+02
  11.100  0.1233E+01  0.1289E+02
  11.150  0.1242E+01  0.1295E+02
  11.200  0.1238E+01  0.1301E+02
  11.250  0.1237E+01  0.1307E+02
  11.300  0.1210E+01  0.1314E+02
  11.350  0.1173E+01  0.1319E+02
  11.400  0.1173E+01  0.1325E+02
  11.450  0.1199E+01  0.1331E+02
  11.500  0.1199E+01  0.1337E+02
  11.550  0.1187E+01  0.1343E+02
  11.600  0.1173E+01  0.1349E+02
  11.650  0.1168E+01  0.1355E+02
  11.700  0.1167E+01  0.1361E+02
  11.750  0.1150E+01  0.1367E+02
  11.800  0.1143E+01  0.1372E+02
  11.850  0.1134E+01  0.1378E+02
  11.900  0.1122E+01  0.1384E+02
  11.950  0.1115E+01  0.1389E+02
  12.000  0.1091E+01  0.1395E+02
  12.050  0.1056E+01  0.1400E+02
  12.100  0.1041E+01  0.1405E+02
  12.150  0.1035E+01  0.1411E+02
  12.200  0.1042E+01  0.1416E+02
  12.250  0.1019E+01  0.1421E+02
  12.300  0.1018E+01  0.1426E+02
  12.350  0.1010E+01  0.1431E+02
  12.400  0.9966E+00  0.1436E+02
  12.450  0.9943E+00  0.1441E+02
  12.500  0.9468E+00  0.1446E+02
  12.550  0.9179E+00  0.1451E+02
  12.600  0.9017E+00  0.1455E+02
  12.650  0.8768E+00  0.1460E+02
  12.700  0.8712E+00  0.1464E+02
  12.750  0.8872E+00  0.1468E+02
  12.800  0.9389E+00  0.1473E+02
  12.850  0.9698E+00  0.1478E+02
  12.900  0.9756E+00  0.1483E+02
  12.950  0.9798E+00  0.1487E+02
  13.000  0.9711E+00  0.1492E+02
  13.050  0.9313E+00  0.1497E+02
  13.100  0.8767E+00  0.1502E+02
  13.150  0.8244E+00  0.1506E+02
  13.200  0.7818E+00  0.1510E+02
  13.250  0.7484E+00  0.1514E+02
  13.300  0.7243E+00  0.1517E+02
  13.350  0.7062E+00  0.1521E+02
  13.400  0.6813E+00  0.1524E+02
  13.450  0.6615E+00  0.1528E+02
  13.500  0.6332E+00  0.1531E+02
  13.550  0.6146E+00  0.1534E+02
  13.600  0.5984E+00  0.1537E+02
  13.650  0.5850E+00  0.1540E+02
  13.700  0.5729E+00  0.1543E+02
  13.750  0.5622E+00  0.1546E+02
  13.800  0.5527E+00  0.1549E+02
  13.850  0.5450E+00  0.1551E+02
  13.900  0.5377E+00  0.1554E+02
  13.950  0.5469E+00  0.1557E+02
  14.000  0.6373E+00  0.1560E+02
  14.050  0.6773E+00  0.1563E+02
  14.100  0.5525E+00  0.1566E+02
  14.150  0.5089E+00  0.1569E+02
  14.200  0.4668E+00  0.1571E+02
  14.250  0.4324E+00  0.1574E+02
  14.300  0.3860E+00  0.1576E+02
  14.350  0.3255E+00  0.1577E+02
  14.400  0.2693E+00  0.1579E+02
  14.450  0.2459E+00  0.1580E+02
  14.500  0.2392E+00  0.1581E+02
  14.550  0.2185E+00  0.1583E+02
  14.600  0.2110E+00  0.1584E+02
  14.650  0.2031E+00  0.1585E+02
  14.700  0.1957E+00  0.1586E+02
  14.750  0.1889E+00  0.1587E+02
  14.800  0.1824E+00  0.1588E+02
  14.850  0.1747E+00  0.1588E+02
  14.900  0.1683E+00  0.1589E+02
  14.950  0.1616E+00  0.1590E+02
  15.000  0.1586E+00  0.1591E+02
  15.050  0.1452E+00  0.1592E+02
  15.100  0.1332E+00  0.1592E+02
  15.150  0.1246E+00  0.1593E+02
  15.200  0.1171E+00  0.1594E+02
  15.250  0.1111E+00  0.1594E+02
  15.300  0.1072E+00  0.1595E+02
  15.350  0.1028E+00  0.1595E+02
  15.400  0.9783E-01  0.1596E+02
  15.450  0.9242E-01  0.1596E+02
  15.500  0.8830E-01  0.1597E+02
  15.550  0.8007E-01  0.1597E+02
  15.600  0.7079E-01  0.1597E+02
  15.650  0.6468E-01  0.1598E+02
  15.700  0.5894E-01  0.1598E+02
  15.750  0.5418E-01  0.1598E+02
  15.800  0.4910E-01  0.1599E+02
  15.850  0.4532E-01  0.1599E+02
  15.900  0.4303E-01  0.1599E+02
  15.950  0.4366E-01  0.1599E+02
  16.000  0.3407E-01  0.1600E+02
  16.050  0.2543E-01  0.1600E+02
  16.100  0.1984E-01  0.1600E+02
  16.150  0.1489E-01  0.1600E+02
  16.200  0.1010E-01  0.1600E+02
  16.250  0.2637E-02  0.1600E+02
  16.300  0.0000E+00  0.1600E+02
  16.350  0.0000E+00  0.1600E+02
  16.400  0.0000E+00  0.1600E+02
  16.450  0.0000E+00  0.1600E+02
  16.500  0.0000E+00  0.1600E+02
  16.550  0.0000E+00  0.1600E+02
  16.600  0.0000E+00  0.1600E+02
  16.650  0.0000E+00  0.1600E+02
  16.700  0.0000E+00  0.1600E+02
  16.750  0.0000E+00  0.1600E+02
  16.800  0.0000E+00  0.1600E+02
  16.850  0.0000E+00  0.1600E+02
  16.900  0.0000E+00  0.1600E+02
  16.950  0.0000E+00  0.1600E+02
  17.000  0.0000E+00  0.1600E+02
